#
# Sample name: Sample title.                                                   
# Sample id:   
# Sample type: 
# User name:   
# Sample description: 
#
# Start time:    2020-02-07, 13:56:12
# Real time (s): 551.195
# Live time (s): 300.000
#
# Total counts:  38592908
#
# Left marker:  237 (458.873 keV)
# Right marker: 274 (534.434 keV)
# Counts:  81372
#
# Energy calibration coefficients ( E = sum(Ai * n**i) )
#     A0: -25.120346
#     A1: 2.042167
#     A2: 0.000000
#     A3: 0.000000
# Energy unit: keV
#
# Channel data
# n	energy	counts	rate
#-----------------------------------------------------------------------
1	-23.078	987	3.29
2	-21.036	3471	11.57
3	-18.994	1761821	5872.74
4	-16.952	25033126	83443.8
5	-14.910	9319647	31065.5
6	-12.867	283370	944.567
7	-10.825	3714	12.38
8	-8.783	2297	7.65667
9	-6.741	2321	7.73667
10	-4.699	2395	7.98333
11	-2.657	2270	7.56667
12	-0.614	2309	7.69667
13	1.428	2354	7.84667
14	3.470	2554	8.51333
15	5.512	2466	8.22
16	7.554	2460	8.2
17	9.597	2401	8.00333
18	11.639	2408	8.02667
19	13.681	2346	7.82
20	15.723	2359	7.86333
21	17.765	2379	7.93
22	19.807	2394	7.98
23	21.850	2378	7.92667
24	23.892	2405	8.01667
25	25.934	2420	8.06667
26	27.976	2423	8.07667
27	30.018	2412	8.04
28	32.060	2380	7.93333
29	34.103	2496	8.32
30	36.145	2341	7.80333
31	38.187	2413	8.04333
32	40.229	2418	8.06
33	42.271	2478	8.26
34	44.313	2477	8.25667
35	46.356	2462	8.20667
36	48.398	2462	8.20667
37	50.440	2547	8.49
38	52.482	2394	7.98
39	54.524	2445	8.15
40	56.566	2365	7.88333
41	58.609	2398	7.99333
42	60.651	2362	7.87333
43	62.693	2452	8.17333
44	64.735	2359	7.86333
45	66.777	2360	7.86667
46	68.819	2462	8.20667
47	70.862	2435	8.11667
48	72.904	2450	8.16667
49	74.946	2579	8.59667
50	76.988	2778	9.26
51	79.030	2908	9.69333
52	81.072	3061	10.2033
53	83.115	3142	10.4733
54	85.157	3254	10.8467
55	87.199	3243	10.81
56	89.241	3039	10.13
57	91.283	3095	10.3167
58	93.325	2958	9.86
59	95.368	2804	9.34667
60	97.410	2702	9.00667
61	99.452	2671	8.90333
62	101.494	2607	8.69
63	103.536	2680	8.93333
64	105.578	2565	8.55
65	107.621	2525	8.41667
66	109.663	2463	8.21
67	111.705	2323	7.74333
68	113.747	2278	7.59333
69	115.789	2254	7.51333
70	117.831	2306	7.68667
71	119.874	2362	7.87333
72	121.916	2273	7.57667
73	123.958	2215	7.38333
74	126.000	2337	7.79
75	128.042	2261	7.53667
76	130.084	2271	7.57
77	132.127	2311	7.70333
78	134.169	2231	7.43667
79	136.211	2334	7.78
80	138.253	2107	7.02333
81	140.295	2389	7.96333
82	142.337	2341	7.80333
83	144.380	2293	7.64333
84	146.422	2302	7.67333
85	148.464	2327	7.75667
86	150.506	2289	7.63
87	152.548	2369	7.89667
88	154.590	2358	7.86
89	156.633	2285	7.61667
90	158.675	2456	8.18667
91	160.717	2385	7.95
92	162.759	2303	7.67667
93	164.801	2343	7.81
94	166.843	2307	7.69
95	168.886	2326	7.75333
96	170.928	2326	7.75333
97	172.970	2344	7.81333
98	175.012	2328	7.76
99	177.054	2403	8.01
100	179.096	2404	8.01333
101	181.139	2421	8.07
102	183.181	2320	7.73333
103	185.223	2443	8.14333
104	187.265	2384	7.94667
105	189.307	2517	8.39
106	191.349	2345	7.81667
107	193.392	2343	7.81
108	195.434	2413	8.04333
109	197.476	2283	7.61
110	199.518	2411	8.03667
111	201.560	2381	7.93667
112	203.602	2494	8.31333
113	205.645	2367	7.89
114	207.687	2387	7.95667
115	209.729	2430	8.1
116	211.771	2367	7.89
117	213.813	2403	8.01
118	215.855	2342	7.80667
119	217.898	2459	8.19667
120	219.940	2372	7.90667
121	221.982	2432	8.10667
122	224.024	2543	8.47667
123	226.066	2524	8.41333
124	228.108	2442	8.14
125	230.151	2503	8.34333
126	232.193	2543	8.47667
127	234.235	2508	8.36
128	236.277	2484	8.28
129	238.319	2569	8.56333
130	240.361	2392	7.97333
131	242.404	2510	8.36667
132	244.446	2558	8.52667
133	246.488	2664	8.88
134	248.530	2720	9.06667
135	250.572	2724	9.08
136	252.614	2835	9.45
137	254.657	2809	9.36333
138	256.699	2994	9.98
139	258.741	3085	10.2833
140	260.783	3321	11.07
141	262.825	3272	10.9067
142	264.867	3427	11.4233
143	266.910	3513	11.71
144	268.952	3452	11.5067
145	270.994	3556	11.8533
146	273.036	3616	12.0533
147	275.078	3742	12.4733
148	277.120	3721	12.4033
149	279.163	3741	12.47
150	281.205	3795	12.65
151	283.247	3726	12.42
152	285.289	3758	12.5267
153	287.331	3749	12.4967
154	289.373	3624	12.08
155	291.416	3659	12.1967
156	293.458	3585	11.95
157	295.500	3602	12.0067
158	297.542	3622	12.0733
159	299.584	3601	12.0033
160	301.626	3515	11.7167
161	303.669	3509	11.6967
162	305.711	3533	11.7767
163	307.753	3447	11.49
164	309.795	3459	11.53
165	311.837	3345	11.15
166	313.879	3155	10.5167
167	315.922	3428	11.4267
168	317.964	3242	10.8067
169	320.006	3155	10.5167
170	322.048	3196	10.6533
171	324.090	3276	10.92
172	326.132	3214	10.7133
173	328.175	3109	10.3633
174	330.217	3109	10.3633
175	332.259	3065	10.2167
176	334.301	2970	9.9
177	336.343	3080	10.2667
178	338.385	2954	9.84667
179	340.428	2994	9.98
180	342.470	3008	10.0267
181	344.512	2982	9.94
182	346.554	2895	9.65
183	348.596	2896	9.65333
184	350.638	2860	9.53333
185	352.681	2832	9.44
186	354.723	2821	9.40333
187	356.765	2837	9.45667
188	358.807	2879	9.59667
189	360.849	2724	9.08
190	362.891	2763	9.21
191	364.934	2690	8.96667
192	366.976	2642	8.80667
193	369.018	2761	9.20333
194	371.060	2728	9.09333
195	373.102	2707	9.02333
196	375.144	2721	9.07
197	377.187	2712	9.04
198	379.229	2726	9.08667
199	381.271	2681	8.93667
200	383.313	2676	8.92
201	385.355	2629	8.76333
202	387.397	2713	9.04333
203	389.440	2645	8.81667
204	391.482	2624	8.74667
205	393.524	2786	9.28667
206	395.566	2692	8.97333
207	397.608	2594	8.64667
208	399.650	2623	8.74333
209	401.693	2639	8.79667
210	403.735	2573	8.57667
211	405.777	2559	8.53
212	407.819	2510	8.36667
213	409.861	2523	8.41
214	411.903	2528	8.42667
215	413.946	2489	8.29667
216	415.988	2501	8.33667
217	418.030	2437	8.12333
218	420.072	2387	7.95667
219	422.114	2443	8.14333
220	424.156	2317	7.72333
221	426.199	2343	7.81
222	428.241	2421	8.07
223	430.283	2352	7.84
224	432.325	2398	7.99333
225	434.367	2280	7.6
226	436.409	2389	7.96333
227	438.452	2331	7.77
228	440.494	2353	7.84333
229	442.536	2334	7.78
230	444.578	2351	7.83667
231	446.620	2259	7.53
232	448.662	2284	7.61333
233	450.705	2326	7.75333
234	452.747	2344	7.81333
235	454.789	2317	7.72333
236	456.831	2261	7.53667
237	458.873	2344	7.81333
238	460.916	2252	7.50667
239	462.958	2282	7.60667
240	465.000	2267	7.55667
241	467.042	2306	7.68667
242	469.084	2310	7.7
243	471.126	2252	7.50667
244	473.169	2348	7.82667
245	475.211	2197	7.32333
246	477.253	2267	7.55667
247	479.295	2247	7.49
248	481.337	2214	7.38
249	483.379	2183	7.27667
250	485.422	2113	7.04333
251	487.464	2228	7.42667
252	489.506	2208	7.36
253	491.548	2191	7.30333
254	493.590	2205	7.35
255	495.632	2124	7.08
256	497.675	2130	7.1
257	499.717	2126	7.08667
258	501.759	2271	7.57
259	503.801	2168	7.22667
260	505.843	2200	7.33333
261	507.885	2101	7.00333
262	509.928	2207	7.35667
263	511.970	2207	7.35667
264	514.012	2168	7.22667
265	516.054	2186	7.28667
266	518.096	2173	7.24333
267	520.138	2101	7.00333
268	522.181	2197	7.32333
269	524.223	2171	7.23667
270	526.265	2195	7.31667
271	528.307	2146	7.15333
272	530.349	2134	7.11333
273	532.391	2184	7.28
274	534.434	2113	7.04333
275	536.476	2159	7.19667
276	538.518	2101	7.00333
277	540.560	2106	7.02
278	542.602	2052	6.84
279	544.644	2138	7.12667
280	546.687	2142	7.14
281	548.729	2107	7.02333
282	550.771	2133	7.11
283	552.813	2007	6.69
284	554.855	2125	7.08333
285	556.897	2063	6.87667
286	558.940	2089	6.96333
287	560.982	2152	7.17333
288	563.024	2166	7.22
289	565.066	2039	6.79667
290	567.108	2119	7.06333
291	569.150	2167	7.22333
292	571.193	2154	7.18
293	573.235	2120	7.06667
294	575.277	2104	7.01333
295	577.319	2091	6.97
296	579.361	2131	7.10333
297	581.403	2078	6.92667
298	583.446	2117	7.05667
299	585.488	2069	6.89667
300	587.530	2106	7.02
301	589.572	2156	7.18667
302	591.614	2160	7.2
303	593.656	2163	7.21
304	595.699	2104	7.01333
305	597.741	2136	7.12
306	599.783	2101	7.00333
307	601.825	2044	6.81333
308	603.867	2063	6.87667
309	605.909	2041	6.80333
310	607.952	2153	7.17667
311	609.994	2073	6.91
312	612.036	2103	7.01
313	614.078	2044	6.81333
314	616.120	2141	7.13667
315	618.162	2081	6.93667
316	620.205	2154	7.18
317	622.247	2063	6.87667
318	624.289	2076	6.92
319	626.331	2066	6.88667
320	628.373	2166	7.22
321	630.415	2093	6.97667
322	632.458	2097	6.99
323	634.500	2189	7.29667
324	636.542	2094	6.98
325	638.584	2084	6.94667
326	640.626	2098	6.99333
327	642.668	2056	6.85333
328	644.711	2156	7.18667
329	646.753	2175	7.25
330	648.795	2104	7.01333
331	650.837	2076	6.92
332	652.879	2072	6.90667
333	654.921	2042	6.80667
334	656.964	2184	7.28
335	659.006	2122	7.07333
336	661.048	2161	7.20333
337	663.090	2064	6.88
338	665.132	2039	6.79667
339	667.174	2092	6.97333
340	669.217	2138	7.12667
341	671.259	2139	7.13
342	673.301	2110	7.03333
343	675.343	2161	7.20333
344	677.385	2123	7.07667
345	679.427	2131	7.10333
346	681.470	2122	7.07333
347	683.512	2081	6.93667
348	685.554	2051	6.83667
349	687.596	2073	6.91
350	689.638	2155	7.18333
351	691.680	2109	7.03
352	693.723	2076	6.92
353	695.765	2086	6.95333
354	697.807	2117	7.05667
355	699.849	2099	6.99667
356	701.891	2071	6.90333
357	703.933	1999	6.66333
358	705.976	2027	6.75667
359	708.018	2150	7.16667
360	710.060	2096	6.98667
361	712.102	2043	6.81
362	714.144	2075	6.91667
363	716.186	2056	6.85333
364	718.229	2163	7.21
365	720.271	2122	7.07333
366	722.313	2130	7.1
367	724.355	2058	6.86
368	726.397	2078	6.92667
369	728.439	2082	6.94
370	730.482	2098	6.99333
371	732.524	2063	6.87667
372	734.566	2144	7.14667
373	736.608	2073	6.91
374	738.650	2091	6.97
375	740.692	2080	6.93333
376	742.735	2078	6.92667
377	744.777	2083	6.94333
378	746.819	2144	7.14667
379	748.861	2092	6.97333
380	750.903	2105	7.01667
381	752.945	2048	6.82667
382	754.988	2082	6.94
383	757.030	2107	7.02333
384	759.072	2050	6.83333
385	761.114	2057	6.85667
386	763.156	2014	6.71333
387	765.198	2086	6.95333
388	767.241	2152	7.17333
389	769.283	2073	6.91
390	771.325	2118	7.06
391	773.367	2030	6.76667
392	775.409	2135	7.11667
393	777.451	2137	7.12333
394	779.494	2035	6.78333
395	781.536	2078	6.92667
396	783.578	2094	6.98
397	785.620	1995	6.65
398	787.662	2135	7.11667
399	789.704	2059	6.86333
400	791.747	2130	7.1
401	793.789	2051	6.83667
402	795.831	2163	7.21
403	797.873	2052	6.84
404	799.915	2020	6.73333
405	801.957	2115	7.05
406	804.000	2039	6.79667
407	806.042	2173	7.24333
408	808.084	2088	6.96
409	810.126	2063	6.87667
410	812.168	2092	6.97333
411	814.210	2130	7.1
412	816.253	2043	6.81
413	818.295	2162	7.20667
414	820.337	2152	7.17333
415	822.379	2146	7.15333
416	824.421	2142	7.14
417	826.463	2136	7.12
418	828.506	2042	6.80667
419	830.548	2150	7.16667
420	832.590	2136	7.12
421	834.632	2203	7.34333
422	836.674	2105	7.01667
423	838.716	2183	7.27667
424	840.759	2079	6.93
425	842.801	2212	7.37333
426	844.843	2109	7.03
427	846.885	2150	7.16667
428	848.927	2154	7.18
429	850.969	2230	7.43333
430	853.012	2141	7.13667
431	855.054	2205	7.35
432	857.096	2190	7.3
433	859.138	2207	7.35667
434	861.180	2265	7.55
435	863.222	2193	7.31
436	865.265	2196	7.32
437	867.307	2072	6.90667
438	869.349	2172	7.24
439	871.391	2181	7.27
440	873.433	2140	7.13333
441	875.475	2172	7.24
442	877.518	2152	7.17333
443	879.560	2226	7.42
444	881.602	2224	7.41333
445	883.644	2227	7.42333
446	885.686	2181	7.27
447	887.728	2146	7.15333
448	889.771	2295	7.65
449	891.813	2160	7.2
450	893.855	2169	7.23
451	895.897	2213	7.37667
452	897.939	2274	7.58
453	899.981	2189	7.29667
454	902.024	2256	7.52
455	904.066	2170	7.23333
456	906.108	2129	7.09667
457	908.150	2269	7.56333
458	910.192	2269	7.56333
459	912.235	2220	7.4
460	914.277	2159	7.19667
461	916.319	2195	7.31667
462	918.361	2253	7.51
463	920.403	2236	7.45333
464	922.445	2184	7.28
465	924.488	2356	7.85333
466	926.530	2195	7.31667
467	928.572	2149	7.16333
468	930.614	2313	7.71
469	932.656	2180	7.26667
470	934.698	2276	7.58667
471	936.741	2335	7.78333
472	938.783	2288	7.62667
473	940.825	2319	7.73
474	942.867	2236	7.45333
475	944.909	2261	7.53667
476	946.951	2278	7.59333
477	948.994	2176	7.25333
478	951.036	2220	7.4
479	953.078	2285	7.61667
480	955.120	2265	7.55
481	957.162	2328	7.76
482	959.204	2342	7.80667
483	961.247	2196	7.32
484	963.289	2292	7.64
485	965.331	2259	7.53
486	967.373	2384	7.94667
487	969.415	2269	7.56333
488	971.457	2437	8.12333
489	973.500	2334	7.78
490	975.542	2335	7.78333
491	977.584	2292	7.64
492	979.626	2363	7.87667
493	981.668	2336	7.78667
494	983.710	2398	7.99333
495	985.753	2359	7.86333
496	987.795	2293	7.64333
497	989.837	2350	7.83333
498	991.879	2351	7.83667
499	993.921	2309	7.69667
500	995.963	2270	7.56667
501	998.006	2454	8.18
502	1000.048	2424	8.08
503	1002.090	2421	8.07
504	1004.132	2330	7.76667
505	1006.174	2404	8.01333
506	1008.216	2355	7.85
507	1010.259	2467	8.22333
508	1012.301	2393	7.97667
509	1014.343	2488	8.29333
510	1016.385	2470	8.23333
511	1018.427	2493	8.31
512	1020.469	2536	8.45333
513	1022.512	2453	8.17667
514	1024.554	2307	7.69
515	1026.596	2460	8.2
516	1028.638	2468	8.22667
517	1030.680	2563	8.54333
518	1032.722	2496	8.32
519	1034.765	2457	8.19
520	1036.807	2546	8.48667
521	1038.849	2521	8.40333
522	1040.891	2538	8.46
523	1042.933	2524	8.41333
524	1044.975	2463	8.21
525	1047.018	2521	8.40333
526	1049.060	2487	8.29
527	1051.102	2476	8.25333
528	1053.144	2587	8.62333
529	1055.186	2555	8.51667
530	1057.228	2616	8.72
531	1059.271	2555	8.51667
532	1061.313	2706	9.02
533	1063.355	2561	8.53667
534	1065.397	2634	8.78
535	1067.439	2542	8.47333
536	1069.481	2680	8.93333
537	1071.524	2731	9.10333
538	1073.566	2698	8.99333
539	1075.608	2638	8.79333
540	1077.650	2678	8.92667
541	1079.692	2677	8.92333
542	1081.734	2780	9.26667
543	1083.777	2798	9.32667
544	1085.819	2699	8.99667
545	1087.861	2698	8.99333
546	1089.903	2654	8.84667
547	1091.945	2686	8.95333
548	1093.987	2816	9.38667
549	1096.030	2780	9.26667
550	1098.072	2742	9.14
551	1100.114	2726	9.08667
552	1102.156	2793	9.31
553	1104.198	2668	8.89333
554	1106.240	2741	9.13667
555	1108.283	2734	9.11333
556	1110.325	2682	8.94
557	1112.367	2727	9.09
558	1114.409	2731	9.10333
559	1116.451	2819	9.39667
560	1118.493	2769	9.23
561	1120.536	2707	9.02333
562	1122.578	2837	9.45667
563	1124.620	2950	9.83333
564	1126.662	2750	9.16667
565	1128.704	2797	9.32333
566	1130.746	2911	9.70333
567	1132.789	2744	9.14667
568	1134.831	2864	9.54667
569	1136.873	2861	9.53667
570	1138.915	2821	9.40333
571	1140.957	2759	9.19667
572	1142.999	2883	9.61
573	1145.042	2714	9.04667
574	1147.084	2857	9.52333
575	1149.126	2805	9.35
576	1151.168	2795	9.31667
577	1153.210	2770	9.23333
578	1155.252	2944	9.81333
579	1157.295	2722	9.07333
580	1159.337	2743	9.14333
581	1161.379	2694	8.98
582	1163.421	2826	9.42
583	1165.463	2733	9.11
584	1167.505	2630	8.76667
585	1169.548	2712	9.04
586	1171.590	2581	8.60333
587	1173.632	2635	8.78333
588	1175.674	2674	8.91333
589	1177.716	2534	8.44667
590	1179.758	2498	8.32667
591	1181.801	2489	8.29667
592	1183.843	2625	8.75
593	1185.885	2387	7.95667
594	1187.927	2439	8.13
595	1189.969	2371	7.90333
596	1192.011	2430	8.1
597	1194.054	2387	7.95667
598	1196.096	2340	7.8
599	1198.138	2271	7.57
600	1200.180	2215	7.38333
601	1202.222	2222	7.40667
602	1204.264	2301	7.67
603	1206.307	2231	7.43667
604	1208.349	2213	7.37667
605	1210.391	2131	7.10333
606	1212.433	2180	7.26667
607	1214.475	2129	7.09667
608	1216.517	2098	6.99333
609	1218.560	2042	6.80667
610	1220.602	2090	6.96667
611	1222.644	1971	6.57
612	1224.686	2069	6.89667
613	1226.728	1948	6.49333
614	1228.770	2015	6.71667
615	1230.813	1935	6.45
616	1232.855	2019	6.73
617	1234.897	1941	6.47
618	1236.939	1986	6.62
619	1238.981	1926	6.42
620	1241.023	1935	6.45
621	1243.066	1927	6.42333
622	1245.108	1838	6.12667
623	1247.150	1828	6.09333
624	1249.192	1733	5.77667
625	1251.234	1862	6.20667
626	1253.276	1846	6.15333
627	1255.319	1797	5.99
628	1257.361	1840	6.13333
629	1259.403	1907	6.35667
630	1261.445	1886	6.28667
631	1263.487	1819	6.06333
632	1265.529	1799	5.99667
633	1267.572	1835	6.11667
634	1269.614	1844	6.14667
635	1271.656	1765	5.88333
636	1273.698	1801	6.00333
637	1275.740	1742	5.80667
638	1277.782	1762	5.87333
639	1279.825	1799	5.99667
640	1281.867	1834	6.11333
641	1283.909	1712	5.70667
642	1285.951	1839	6.13
643	1287.993	1764	5.88
644	1290.035	1790	5.96667
645	1292.078	1722	5.74
646	1294.120	1764	5.88
647	1296.162	1765	5.88333
648	1298.204	1820	6.06667
649	1300.246	1806	6.02
650	1302.288	1773	5.91
651	1304.331	1709	5.69667
652	1306.373	1791	5.97
653	1308.415	1741	5.80333
654	1310.457	1794	5.98
655	1312.499	1813	6.04333
656	1314.541	1813	6.04333
657	1316.584	1742	5.80667
658	1318.626	1761	5.87
659	1320.668	1782	5.94
660	1322.710	1822	6.07333
661	1324.752	1797	5.99
662	1326.794	1694	5.64667
663	1328.837	1782	5.94
664	1330.879	1693	5.64333
665	1332.921	1768	5.89333
666	1334.963	1700	5.66667
667	1337.005	1614	5.38
668	1339.047	1653	5.51
669	1341.090	1647	5.49
670	1343.132	1673	5.57667
671	1345.174	1633	5.44333
672	1347.216	1723	5.74333
673	1349.258	1627	5.42333
674	1351.300	1656	5.52
675	1353.343	1584	5.28
676	1355.385	1623	5.41
677	1357.427	1631	5.43667
678	1359.469	1550	5.16667
679	1361.511	1535	5.11667
680	1363.554	1530	5.1
681	1365.596	1503	5.01
682	1367.638	1518	5.06
683	1369.680	1499	4.99667
684	1371.722	1435	4.78333
685	1373.764	1478	4.92667
686	1375.807	1429	4.76333
687	1377.849	1340	4.46667
688	1379.891	1440	4.8
689	1381.933	1418	4.72667
690	1383.975	1363	4.54333
691	1386.017	1306	4.35333
692	1388.060	1329	4.43
693	1390.102	1322	4.40667
694	1392.144	1362	4.54
695	1394.186	1257	4.19
696	1396.228	1299	4.33
697	1398.270	1323	4.41
698	1400.313	1359	4.53
699	1402.355	1334	4.44667
700	1404.397	1318	4.39333
701	1406.439	1330	4.43333
702	1408.481	1401	4.67
703	1410.523	1411	4.70333
704	1412.566	1524	5.08
705	1414.608	1553	5.17667
706	1416.650	1643	5.47667
707	1418.692	1662	5.54
708	1420.734	1690	5.63333
709	1422.776	1848	6.16
710	1424.819	1951	6.50333
711	1426.861	2034	6.78
712	1428.903	2170	7.23333
713	1430.945	2262	7.54
714	1432.987	2413	8.04333
715	1435.029	2504	8.34667
716	1437.072	2726	9.08667
717	1439.114	2922	9.74
718	1441.156	3060	10.2
719	1443.198	3249	10.83
720	1445.240	3376	11.2533
721	1447.282	3647	12.1567
722	1449.325	3845	12.8167
723	1451.367	3942	13.14
724	1453.409	4169	13.8967
725	1455.451	4463	14.8767
726	1457.493	4610	15.3667
727	1459.535	4897	16.3233
728	1461.578	5070	16.9
729	1463.620	5196	17.32
730	1465.662	5369	17.8967
731	1467.704	5767	19.2233
732	1469.746	5934	19.78
733	1471.788	5770	19.2333
734	1473.831	6049	20.1633
735	1475.873	6227	20.7567
736	1477.915	6333	21.11
737	1479.957	6483	21.61
738	1481.999	6485	21.6167
739	1484.041	6548	21.8267
740	1486.084	6534	21.78
741	1488.126	6589	21.9633
742	1490.168	6509	21.6967
743	1492.210	6596	21.9867
744	1494.252	6338	21.1267
745	1496.294	6244	20.8133
746	1498.337	6178	20.5933
747	1500.379	6130	20.4333
748	1502.421	5983	19.9433
749	1504.463	5971	19.9033
750	1506.505	5676	18.92
751	1508.547	5563	18.5433
752	1510.590	5303	17.6767
753	1512.632	5040	16.8
754	1514.674	4920	16.4
755	1516.716	4558	15.1933
756	1518.758	4455	14.85
757	1520.800	4213	14.0433
758	1522.843	3992	13.3067
759	1524.885	3662	12.2067
760	1526.927	3472	11.5733
761	1528.969	3333	11.11
762	1531.011	3062	10.2067
763	1533.053	2795	9.31667
764	1535.096	2597	8.65667
765	1537.138	2463	8.21
766	1539.180	2331	7.77
767	1541.222	2188	7.29333
768	1543.264	1913	6.37667
769	1545.306	1720	5.73333
770	1547.349	1654	5.51333
771	1549.391	1427	4.75667
772	1551.433	1326	4.42
773	1553.475	1206	4.02
774	1555.517	1149	3.83
775	1557.559	1043	3.47667
776	1559.602	961	3.20333
777	1561.644	869	2.89667
778	1563.686	762	2.54
779	1565.728	743	2.47667
780	1567.770	656	2.18667
781	1569.812	667	2.22333
782	1571.855	625	2.08333
783	1573.897	605	2.01667
784	1575.939	547	1.82333
785	1577.981	545	1.81667
786	1580.023	534	1.78
787	1582.065	495	1.65
788	1584.108	531	1.77
789	1586.150	500	1.66667
790	1588.192	516	1.72
791	1590.234	515	1.71667
792	1592.276	539	1.79667
793	1594.318	553	1.84333
794	1596.361	554	1.84667
795	1598.403	600	2
796	1600.445	607	2.02333
797	1602.487	691	2.30333
798	1604.529	691	2.30333
799	1606.571	697	2.32333
800	1608.614	791	2.63667
801	1610.656	805	2.68333
802	1612.698	970	3.23333
803	1614.740	992	3.30667
804	1616.782	1124	3.74667
805	1618.824	1176	3.92
806	1620.867	1179	3.93
807	1622.909	1272	4.24
808	1624.951	1481	4.93667
809	1626.993	1495	4.98333
810	1629.035	1618	5.39333
811	1631.077	1733	5.77667
812	1633.120	1888	6.29333
813	1635.162	1995	6.65
814	1637.204	2190	7.3
815	1639.246	2328	7.76
816	1641.288	2345	7.81667
817	1643.330	2709	9.03
818	1645.373	2774	9.24667
819	1647.415	2846	9.48667
820	1649.457	3025	10.0833
821	1651.499	3181	10.6033
822	1653.541	3480	11.6
823	1655.583	3589	11.9633
824	1657.626	3748	12.4933
825	1659.668	3851	12.8367
826	1661.710	3958	13.1933
827	1663.752	4213	14.0433
828	1665.794	4423	14.7433
829	1667.836	4511	15.0367
830	1669.879	4585	15.2833
831	1671.921	4777	15.9233
832	1673.963	4854	16.18
833	1676.005	4937	16.4567
834	1678.047	5035	16.7833
835	1680.089	5077	16.9233
836	1682.132	5058	16.86
837	1684.174	5196	17.32
838	1686.216	5258	17.5267
839	1688.258	5160	17.2
840	1690.300	5162	17.2067
841	1692.342	5131	17.1033
842	1694.385	5114	17.0467
843	1696.427	5083	16.9433
844	1698.469	4987	16.6233
845	1700.511	4858	16.1933
846	1702.553	4692	15.64
847	1704.595	4646	15.4867
848	1706.638	4569	15.23
849	1708.680	4536	15.12
850	1710.722	4384	14.6133
851	1712.764	4140	13.8
852	1714.806	4038	13.46
853	1716.848	3792	12.64
854	1718.891	3617	12.0567
855	1720.933	3440	11.4667
856	1722.975	3308	11.0267
857	1725.017	3122	10.4067
858	1727.059	2994	9.98
859	1729.101	2858	9.52667
860	1731.144	2707	9.02333
861	1733.186	2522	8.40667
862	1735.228	2343	7.81
863	1737.270	2189	7.29667
864	1739.312	2043	6.81
865	1741.354	1817	6.05667
866	1743.397	1734	5.78
867	1745.439	1569	5.23
868	1747.481	1485	4.95
869	1749.523	1343	4.47667
870	1751.565	1275	4.25
871	1753.607	1123	3.74333
872	1755.650	1018	3.39333
873	1757.692	971	3.23667
874	1759.734	935	3.11667
875	1761.776	812	2.70667
876	1763.818	764	2.54667
877	1765.860	651	2.17
878	1767.903	633	2.11
879	1769.945	608	2.02667
880	1771.987	615	2.05
881	1774.029	513	1.71
882	1776.071	480	1.6
883	1778.113	445	1.48333
884	1780.156	416	1.38667
885	1782.198	391	1.30333
886	1784.240	366	1.22
887	1786.282	333	1.11
888	1788.324	325	1.08333
889	1790.366	320	1.06667
890	1792.409	292	0.973333
891	1794.451	324	1.08
892	1796.493	260	0.866667
893	1798.535	265	0.883333
894	1800.577	278	0.926667
895	1802.619	279	0.93
896	1804.662	263	0.876667
897	1806.704	274	0.913333
898	1808.746	257	0.856667
899	1810.788	245	0.816667
900	1812.830	255	0.85
901	1814.873	242	0.806667
902	1816.915	233	0.776667
903	1818.957	240	0.8
904	1820.999	254	0.846667
905	1823.041	238	0.793333
906	1825.083	253	0.843333
907	1827.126	234	0.78
908	1829.168	242	0.806667
909	1831.210	236	0.786667
910	1833.252	210	0.7
911	1835.294	233	0.776667
912	1837.336	244	0.813333
913	1839.379	234	0.78
914	1841.421	236	0.786667
915	1843.463	254	0.846667
916	1845.505	226	0.753333
917	1847.547	226	0.753333
918	1849.589	234	0.78
919	1851.632	222	0.74
920	1853.674	227	0.756667
921	1855.716	243	0.81
922	1857.758	239	0.796667
923	1859.800	225	0.75
924	1861.842	203	0.676667
925	1863.885	232	0.773333
926	1865.927	238	0.793333
927	1867.969	215	0.716667
928	1870.011	230	0.766667
929	1872.053	224	0.746667
930	1874.095	211	0.703333
931	1876.138	201	0.67
932	1878.180	227	0.756667
933	1880.222	230	0.766667
934	1882.264	216	0.72
935	1884.306	220	0.733333
936	1886.348	222	0.74
937	1888.391	228	0.76
938	1890.433	206	0.686667
939	1892.475	218	0.726667
940	1894.517	214	0.713333
941	1896.559	220	0.733333
942	1898.601	243	0.81
943	1900.644	252	0.84
944	1902.686	213	0.71
945	1904.728	194	0.646667
946	1906.770	218	0.726667
947	1908.812	198	0.66
948	1910.854	203	0.676667
949	1912.897	208	0.693333
950	1914.939	242	0.806667
951	1916.981	211	0.703333
952	1919.023	225	0.75
953	1921.065	257	0.856667
954	1923.107	221	0.736667
955	1925.150	196	0.653333
956	1927.192	185	0.616667
957	1929.234	208	0.693333
958	1931.276	197	0.656667
959	1933.318	209	0.696667
960	1935.360	222	0.74
961	1937.403	179	0.596667
962	1939.445	208	0.693333
963	1941.487	237	0.79
964	1943.529	215	0.716667
965	1945.571	193	0.643333
966	1947.613	203	0.676667
967	1949.656	197	0.656667
968	1951.698	215	0.716667
969	1953.740	237	0.79
970	1955.782	221	0.736667
971	1957.824	208	0.693333
972	1959.866	218	0.726667
973	1961.909	204	0.68
974	1963.951	207	0.69
975	1965.993	202	0.673333
976	1968.035	183	0.61
977	1970.077	229	0.763333
978	1972.119	198	0.66
979	1974.162	197	0.656667
980	1976.204	210	0.7
981	1978.246	207	0.69
982	1980.288	222	0.74
983	1982.330	215	0.716667
984	1984.372	207	0.69
985	1986.415	226	0.753333
986	1988.457	205	0.683333
987	1990.499	202	0.673333
988	1992.541	183	0.61
989	1994.583	207	0.69
990	1996.625	194	0.646667
991	1998.668	207	0.69
992	2000.710	207	0.69
993	2002.752	230	0.766667
994	2004.794	212	0.706667
995	2006.836	207	0.69
996	2008.878	197	0.656667
997	2010.921	199	0.663333
998	2012.963	194	0.646667
999	2015.005	197	0.656667
1000	2017.047	201	0.67
1001	2019.089	193	0.643333
1002	2021.131	206	0.686667
1003	2023.174	232	0.773333
1004	2025.216	213	0.71
1005	2027.258	207	0.69
1006	2029.300	227	0.756667
1007	2031.342	226	0.753333
1008	2033.384	179	0.596667
1009	2035.427	193	0.643333
1010	2037.469	194	0.646667
1011	2039.511	210	0.7
1012	2041.553	227	0.756667
1013	2043.595	197	0.656667
1014	2045.637	198	0.66
1015	2047.680	196	0.653333
1016	2049.722	188	0.626667
1017	2051.764	183	0.61
1018	2053.806	193	0.643333
1019	2055.848	188	0.626667
1020	2057.890	185	0.616667
1021	2059.933	191	0.636667
1022	2061.975	182	0.606667
1023	2064.017	195	0.65
1024	2066.059	188	0.626667
